#   1 NUMBER                 Running object number                                     
#   2 FLUX_ISO               Isophotal flux                                             [count]
#   3 MAG_ISO                Isophotal magnitude                                        [mag]
#   4 KRON_RADIUS            Kron apertures in units of A or B                         
#   5 PETRO_RADIUS           Petrosian apertures in units of A or B                    
#   6 ISOAREA_IMAGE          Isophotal area above Analysis threshold                    [pixel**2]
#   7 ISOAREAF_IMAGE         Isophotal area (filtered) above Detection threshold        [pixel**2]
#   8 X_IMAGE                Object position along x                                    [pixel]
#   9 Y_IMAGE                Object position along y                                    [pixel]
#  10 A_IMAGE                Profile RMS along major axis                               [pixel]
#  11 B_IMAGE                Profile RMS along minor axis                               [pixel]
#  12 THETA_IMAGE            Position angle (CCW/x)                                     [deg]
#  13 BACKGROUND             Background at centroid position                            [count]
         1 2.164249e+07 -18.3383  3.50  3.50     70161     78202   1550.0251    598.1568    30.982    27.764 -71.63     1160.944
         2     485941.4 -14.2165  3.50  3.96       750       820   1263.2347    109.0487     2.772     2.503  22.74     1146.538
         3     13542.08 -10.3292  3.50  4.62       122       135     97.4260     24.3119     1.971     1.888  76.65     1145.474
         4     246.9006  -5.9813  3.50  3.96        17        19     53.0465      8.5500     1.281     1.038  17.63      1145.53
         5     32.08508  -3.7658  7.17 10.56         3         3    683.3229      9.6589     0.576     0.334  45.79     1145.602
         6     224.9153  -5.8800  7.35 10.56        14        23   1070.9774      6.4271     1.438     1.102  58.64     1144.857
         7     1571.257  -7.9906  3.68  3.96        38        44   1676.2830      2.7776     1.617     1.311 -11.31     1146.177
         8     53.46204  -4.3201  8.42  9.90         4         4   1943.4663      6.4623     0.500     0.498  41.53     1144.481
         9     212.1415  -5.8166  4.41  7.92        14        19    774.7402     24.3400     1.208     1.094   3.04     1145.413
        10     33.39197  -3.8091  7.69 10.56         2         4    342.4949     21.5030     0.512     0.487 -45.02     1145.399
        11     1559.811  -7.9827  3.50  5.28        45        49    209.8033     40.8634     1.591     1.492 -81.12     1145.364
        12     219.4562  -5.8534  5.90 10.56        13        19   1355.6417     33.4297     1.096     1.087 -87.30     1147.352
        13     111.5267  -5.1184  6.72  3.50         7        11   2044.1245     42.1705     1.571     0.638 -62.81     1143.442
        14     165.2672  -5.5455  7.05  6.60         8        15   1507.4838     34.2954     1.052     0.638  -3.78      1146.97
        15     250.0712  -5.9952  7.09  5.28        14        21   1517.2561     39.6999     1.306     1.253  30.29     1147.056
        16     37.84924  -3.9451  6.04  9.24         3         3   1854.3398     34.6962     0.567     0.338  43.22     1145.971
        17      435.184  -6.5967  3.58  6.60        21        27   1447.9712     96.2946     1.467     1.061 -82.94     1147.886
        18     5223.998  -9.2950  3.88  5.94       199       222   1081.4310     81.4578     3.566     3.248   0.28     1145.177
        19     880.4348  -7.3617  5.32  7.26        36        42   1539.5690     54.0895     1.547     1.492  78.34     1147.258
        20     106.4534  -5.0679  4.71  9.24         9        10   1731.1777     44.9320     0.946     0.752   2.71     1146.387
        21     44.05176  -4.1099  6.66  9.90         3         4   1056.2473     45.9599     0.681     0.431  87.96     1145.034
        22     98.05542  -4.9787  5.19  4.62         7         8    849.2021     45.8940     1.083     0.523 -36.03     1145.253
        23     73.31421  -4.6630  5.70  4.62         4         6   1955.1410     47.1303     0.782     0.572  41.89     1144.705
        24     204.0662  -5.7744  3.98  7.26        12        15   1865.4011     57.1981     1.068     0.976 -62.19     1145.945
        25     2702.948  -8.5796  3.55  5.28        55        65   1240.1677     68.6660     1.664     1.641  36.53      1146.03
        26     284.5065  -6.1352  7.85  4.62        17        22   1520.1024     65.2520     1.651     0.933 -36.53     1147.447
        27     252.0261  -6.0036  7.37  4.62        12        16   1886.7056     63.7857     1.210     0.895 -84.34     1145.707
        28     45.36401  -4.1418  6.02  9.90         3         4   1705.4885     56.4803     0.503     0.496  44.01      1146.63
        29     33.77197  -3.8214  8.35  7.26         3         3    146.6614     60.0240     0.912     0.211 -61.48     1145.423
        30     156.3395  -5.4852  3.50  5.94         8        14    556.3903     63.2850     1.234     0.952  14.90     1145.538
        31     149.6875  -5.4380  7.67  9.24        11        13   1514.8552     66.1085     1.223     0.784  12.13     1147.466
        32     7143.818  -9.6348  3.50  4.62        92       105    272.7937     91.8039     1.885     1.797  72.11     1145.381
        33     9784.266  -9.9763  3.50  5.28       168       188    235.3894    104.9222     2.641     2.552 -83.77      1145.39
        34     33.63318  -3.8169  6.65  9.90         3         3   1586.6638     67.3384     0.581     0.331  45.09     1147.432
        35     2876.474  -8.6472  3.78  5.28        62        70   1933.6610     91.1571     1.727     1.664 -18.02     1145.371
        36     32.66357  -3.7852  7.02 10.56         2         3   1309.6570     76.2769     0.556     0.342  41.23     1147.031
        37     72.22266  -4.6467  8.42  4.62         5         5    765.4141     85.2533     0.740     0.456  71.31     1145.353
        38     947.4581  -7.4414  3.50  5.94        31        38   1348.3511     96.7683     1.472     1.379 -26.19     1147.584
        39     71.55676  -4.6366  7.39  7.92         5         6   2020.0615     88.1503     0.920     0.459 -36.35     1144.427
        40     562.9543  -6.8762  9.26 10.56        13        53   1684.0786    125.0628     1.882     0.990 -77.35     1147.534
        41     235.1929  -5.9286  8.65 10.56        10        22   1692.4922     92.3284     1.310     0.762 -32.66     1147.097
        42     95.17676  -4.9463  4.95  4.62         7         8     97.1448     90.8495     0.825     0.656  44.71     1145.483
        43     41.30396  -4.0400  7.65  9.90         3         4   2041.4530     88.5070     0.500     0.498 -75.07     1144.219
        44     741.7865  -7.1757  6.92 10.56        45        51   1237.8954    105.8557     2.191     1.659  20.08     1146.195
        45     295.4786  -6.1763  4.12  6.60        15        22     98.7413     98.8391     1.301     1.106  15.92     1145.482
        46     40.76184  -4.0256  3.50  9.24         3         3   1587.3168     91.7076     0.552     0.345  43.53     1147.834
        47     67811.11 -12.0783  3.50  3.96       272       308   1850.8287    143.9575     2.173     2.152  -6.28      1146.42
        48     80.20996  -4.7606  7.28  7.26         6         8   1185.1085     97.5113     0.936     0.679 -52.50     1145.721
        49     79.62158  -4.7526  7.77  7.92         4         9   1692.7605     99.8700     1.369     0.508  23.65     1147.175
        50     656.2097  -7.0426  4.97  5.94        29        32   1098.1871    111.8671     1.370     1.338  33.76     1145.373
        51     61.27759  -4.4683  8.90 10.56         3         6   1690.4919    107.3474     0.940     0.476  -1.39     1147.277
        52     44.75415  -4.1271  6.86  9.24         2         3   1630.7134    115.0261     0.869     0.218  61.91     1147.917
        53     37.44849  -3.9336  8.02  5.28         3         3   1726.3168    112.3214     0.565     0.340 -45.24     1147.002
        54      50.7771  -4.2642  3.50  7.92         4         4   1735.4664    115.4470     0.503     0.493  39.95     1146.966
        55     359.7931  -6.3901  8.26 10.56        14        32   1582.3505    173.3118     1.644     0.823  11.68     1149.139
        56     187.5233  -5.6826  6.40  6.60        12        16   1938.2446    133.8415     1.480     0.812 -81.50     1145.717
        57     43.84583  -4.1048  6.58  9.90         3         4    776.9819    128.5251     1.293     0.193 -58.39     1145.283
        58      33.4696  -3.8116  6.41  9.90         2         3   1798.6725    130.6553     0.580     0.332 -45.71     1146.696
        59     103724.1 -12.5397  3.90  5.28      2385      2731   1387.5702    412.8303    11.407    10.222 -27.82     1153.663
        60     4802.047  -9.2036  3.68  5.94       131       153   1925.5477    167.1705     2.845     2.274  84.65     1146.083
        61     45.35815  -4.1416  8.64 10.56         4         4    878.4724    134.4838     0.501     0.498  52.12     1145.201
        62     3359.194  -8.8156  3.50  5.28        97       108    556.0010    163.1277     2.350     2.225 -67.51     1145.354
        63     71.79651  -4.6403  6.99  4.62         4         5   1619.3848    143.4461     1.096     0.319 -69.49     1148.453
        64     105.8801  -5.0620  8.84  5.28         8        10   1679.7745    145.5302     1.242     0.612 -47.66     1147.817
        65     41.14587  -4.0358  6.00  9.90         3         3   1499.3065    140.6880     0.556     0.343  45.31     1148.652
        66     46.63232  -4.1717  5.40  3.50         3         4   1754.5112    141.5328     0.512     0.486 -43.97     1147.059
        67     51.88843  -4.2877  7.41  7.26         4         4   1574.9567    141.4583     0.774     0.321  32.79     1148.627
        68      266.584  -6.0646  7.06 10.56        15        21   1682.0723    153.8730     1.357     0.933  70.20     1147.886
        69     55.95288  -4.3696  8.25 10.56         4         4   1621.5081    145.9823     0.802     0.312 -58.06     1148.464
        70     47.39819  -4.1894  8.18  9.90         3         4   1788.4551    147.9867     0.796     0.312  58.00     1146.875
        71     106.7238  -5.0707  7.53 10.56         8        10   1594.8213    153.4541     0.994     0.715  88.62     1148.814
        72     198.8127  -5.7461  4.49  5.94        12        14   1190.7588    161.3266     1.227     0.799 -86.69     1146.095
        73     67.86853  -4.5792  8.28  5.94         5         5   1548.8127    152.3928     0.763     0.444 -19.23     1148.811
        74     110.9193  -5.1125  8.64  3.50         5         9   1675.2352    158.5023     0.961     0.606 -64.74     1148.026
        75      410.746  -6.5339  5.68  6.60        24        32   1045.2583    165.2891     1.719     1.260  33.83     1145.443
        76     70.46558  -4.6199  8.40  7.26         5         6   1597.8336    161.3537     0.739     0.642  74.30     1148.942
        77     86.58826  -4.8436  7.63  8.58         6         9   1526.6724    161.9026     0.959     0.680 -21.13     1148.975
        78     58.77771  -4.4230  8.10  7.92         4         5   1514.4128    162.1860     0.771     0.444  70.34     1148.978
        79     38.40796  -3.9611  6.30  6.60         3         3     44.3462    159.7197     0.558     0.341  41.39     1145.528
        80     35.33813  -3.8706  6.49  8.58         3         3   1646.6395    160.2991     0.573     0.334  42.23     1148.374
        81     337.8494  -6.3218  3.50  6.60        21        25    110.9967    171.7390     1.390     1.229  42.77     1145.485
        82     277.2142  -6.1070  7.58 10.56        15        25   1532.3735    171.0465     1.515     0.975 -75.20     1149.116
        83      2817.92  -8.6248  4.23  5.28        72        79   1485.3547    187.5318     1.927     1.721  74.85      1149.39
        84     194.1119  -5.7201  8.63 10.56        14        20   1670.4958    170.8519     1.752     0.940  18.53     1148.231
        85     343.1099  -6.3386  3.50  4.62        21        21    472.7953    170.9519     1.179     1.124  19.61     1145.374
        86      40.5083  -4.0189  4.88 10.56         3         3   1830.6703    164.6647     0.577     0.334 -45.24     1146.657
        87     649.0892  -7.0308  7.75  3.50        29        55   1571.4176    179.9354     2.223     1.579 -28.28     1149.253
        88      38.1001  -3.9523  8.01  7.26         3         3   1810.3418    167.3221     0.576     0.334 -44.14     1146.828
        89     155.7427  -5.4810  8.02  5.94        13        15   1843.8552    173.8241     1.442     0.832  13.86     1146.597
        90     67.11597  -4.5671  9.32 10.56         2         7   1564.5090    169.5191     0.513     0.486  44.70     1149.094
        91     40.62439  -4.0220  7.11  9.24         3         3   1549.0002    167.0000     0.835     0.289   0.00     1149.049
        92     262.9435  -6.0497  6.30  5.28        16        18   1480.5780    177.6004     1.308     0.969  55.01     1149.234
        93     190.6926  -5.7008  8.36 10.56         8        16   1670.8406    179.1987     1.204     0.763  88.47     1148.315
        94     99.03406  -4.9895  6.74 10.56         5         8   1549.2102    171.5486     0.730     0.455 -20.57     1149.129
        95     2856.618  -8.6396  3.50  5.28        55        62   1992.3429    189.4718     1.646     1.593  59.75      1145.99
        96     63.77234  -4.5116  7.80  8.58         5         6   1069.9745    175.4797     0.813     0.499   1.68     1145.564
        97     356.6539  -6.3806  5.17  5.94        23        29   1433.9133    190.1752     1.952     1.157  41.75     1148.942
        98     225.8833  -5.8847  6.10  7.26        14        19    416.4676    183.1383     1.477     0.928  -3.63     1145.373
        99     894.8594  -7.3794  6.41  6.60        42        53   1789.1411    197.2643     1.920     1.698 -78.37     1147.231
       100     95.67468  -4.9520  7.70  7.92         8         9   1746.5178    187.2621     1.545     0.602  53.82     1147.473
       101     138.4192  -5.3530  8.11 10.56         5        12   1549.2272    188.5173     1.217     0.594  84.07     1149.399
       102     81.77234  -4.7815  3.50  3.50         5         7    158.2236    185.4442     0.842     0.608  78.14      1145.46
       103     67.30688  -4.5701  8.88  6.60         5         5   1666.7670    181.6000     0.738     0.455  18.26     1148.405
       104        60648 -11.9570  3.50  3.96       249       267   1360.2930    227.1886     2.167     2.137  79.70     1148.527
       105     42.54675  -4.0722  7.75  7.92         2         4   1648.4757    182.4842     0.502     0.497 -47.12     1148.657
       106     850.1154  -7.3237  6.99 10.56        48        60   1523.4370    203.9415     2.004     1.944  89.02     1149.796
       107     124.7302  -5.2399  6.71  5.28         9         9    642.9081    189.2875     0.933     0.670  67.80     1145.261
       108      42.5636  -4.0726  7.42 10.56         2         3   1499.9750    184.6553     0.920     0.209  28.46     1149.341
       109     540742.1 -14.3325  3.50  3.50      1464      1619   1399.1251    361.3213     4.166     4.021 -15.11     1152.291
       110     390708.3 -13.9796  3.50  3.50       678       756    990.0470    270.4128     2.520     2.404 -46.03     1145.649
       111     50.70178  -4.2626  6.16  7.92         4         4   1210.4808    187.4964     0.500     0.500 -79.27     1146.339
       112     127.8263  -5.2666  8.64 10.56         8        10   1658.8699    208.4006     2.737     0.621 -87.34     1149.107
       113     1745.331  -8.1047  3.50  4.62        43        52    622.0773    203.3733     1.615     1.488 -26.24     1145.253
       114     31.48926  -3.7454  7.98 10.56         2         3   1664.6726    188.3321     0.574     0.335  45.22     1148.506
       115     58.10559  -4.4105  8.03  3.96         4         6   1723.1720    197.9968     0.953     0.468  52.83      1147.88
       116     259.1617  -6.0339  6.32  6.60        18        20   1240.8561    205.1164     1.298     1.088 -31.72     1146.789
       117     878.4172  -7.3593  3.50  7.26        44        48    233.2402    216.4342     1.812     1.587  64.30     1145.428
       118     61.45007  -4.4713  7.50 10.56         4         6   1661.4775    205.4947     1.395     0.430  61.92     1148.985
       119      52.0946  -4.2920  7.74  4.62         3         5   1662.1984    199.4187     0.778     0.438  20.71      1148.79
       120     318.3359  -6.2572  6.80  7.92        20        24   1441.2496    207.5623     1.495     1.158  -9.40     1149.407
       121       133.61  -5.3146  6.96 10.56         9        10   1551.0927    204.0776     2.070     0.400   7.92     1149.818
       122     51.58728  -4.2814  3.65  7.26         2         3   1587.3193    201.2974     0.555     0.344 -43.73     1149.741
       123     83.79041  -4.8080  8.37 10.56         5         8   1553.0721    208.1148     0.827     0.666 -41.97      1149.95
       124     1936.509  -8.2175  3.50  5.28        48        54    502.6519    221.6394     1.571     1.530 -13.31     1145.307
       125     471.3589  -6.6834  5.44  5.94        27        33   1795.3611    221.1031     1.660     1.366 -31.33     1147.612
       126      1793.35  -8.1342  3.61  5.28        76        88    202.8496    234.3154     2.506     1.980  46.31     1145.445
       127     252.1862  -6.0043  8.44 10.56        12        23   1656.7185    219.5800     1.386     0.929  44.85     1149.504
       128      46.8092  -4.1758  7.71  8.58         3         3   1495.3448    213.2841     0.560     0.341 -41.72     1150.026
       129     1458.393  -7.9097  4.99  9.24        66        83   1373.0836    237.1229     2.587     1.837  40.18     1148.894
       130     169.2163  -5.5711  8.55 10.56        11        16   1652.6708    229.1973     1.861     0.865  67.06     1149.849
       131     496.5387  -6.7399  5.20  5.94        27        30    202.2341    225.9561     1.522     1.273  36.63     1145.444
       132     195.5978  -5.7284  4.52  5.28        14        14    340.9407    224.1638     1.121     0.943  27.20     1145.384
       133     115.3243  -5.1548  7.23  4.62         6        11   1486.9825    225.2380     1.245     0.679  74.82     1150.342
       134     40.72559  -4.0247  7.70  5.28         2         3   1552.6917    217.3022     0.552     0.345  44.63     1150.242
       135     267.4943  -6.0683  7.49 10.56        13        23   1457.1848    229.2683     1.379     1.040  54.02      1150.15
       136     67.74683  -4.5772  7.89 10.56         6         6   1730.9940    219.4959     0.799     0.500  -0.71     1148.259
       137     45.47632  -4.1445  7.93  5.28         3         3   1542.6776    220.3316     0.572     0.336  45.43     1150.319
       138     90.02625  -4.8859  5.15  6.60         7         8     94.7640    223.8627     1.077     0.524  35.00     1145.493
       139      79.5155  -4.7511  4.73  7.26         5         6   1021.0844    226.5156     0.770     0.500   0.51     1145.598
       140     288.3256  -6.1497  8.40  9.90        12        25   1652.4498    235.3143     1.160     1.116  44.46     1150.053
       141     52.77832  -4.3061  5.22  7.26         2         4   1562.5046    229.4745     0.520     0.479  44.56      1150.66
       142     409.8225  -6.5315  5.25  7.92        21        25   1417.9159    242.7999     1.309     1.179 -58.06     1149.794
       143     147.4973  -5.4220  3.50  6.60        11        14   1021.7605    242.4986     1.318     0.817 -78.09     1145.673
       144     11438.57 -10.1459  3.50  4.62       114       129    306.3242    266.3264     1.973     1.847 -76.91     1145.416
       145     189.0192  -5.6913  8.79 10.56        13        16   1650.8353    242.8601     1.204     1.137  25.70     1150.321
