#   1 NUMBER                 Running object number                                     
#   2 FLUX_ISO               Isophotal flux                                             [count]
#   3 MAG_ISO                Isophotal magnitude                                        [mag]
#   4 KRON_RADIUS            Kron apertures in units of A or B                         
#   5 PETRO_RADIUS           Petrosian apertures in units of A or B                    
#   6 ISOAREA_IMAGE          Isophotal area above Analysis threshold                    [pixel**2]
#   7 ISOAREAF_IMAGE         Isophotal area (filtered) above Detection threshold        [pixel**2]
#   8 X_IMAGE                Object position along x                                    [pixel]
#   9 Y_IMAGE                Object position along y                                    [pixel]
#  10 A_IMAGE                Profile RMS along major axis                               [pixel]
#  11 B_IMAGE                Profile RMS along minor axis                               [pixel]
#  12 THETA_IMAGE            Position angle (CCW/x)                                     [deg]
#  13 BACKGROUND             Background at centroid position                            [count]
         1     2018.353  -8.2625  5.03  7.92        66        83    682.1534     28.7994     2.204     1.823 -40.17     1122.842
         2     2254.993  -8.3829  3.91  5.94        75        93     33.4085     20.5502     2.327     2.012 -41.02     1124.743
         3     16872.63 -10.5680  3.50  5.94       331       366    172.7937      9.3479     3.830     3.324   7.78     1123.214
         4     1728.121  -8.0939  5.43  6.60        68        83   1613.3688     12.6167     2.958     1.553 -17.64     1122.847
         5      1781.44  -8.1269  5.33  5.94        81        92   1010.7512     11.4525     2.664     2.060 -29.90     1122.663
         6      209.304  -5.8019  6.27  6.60        13        17    668.5174     13.1819     1.203     1.120  19.75     1122.825
         7     183.1334  -5.6569  5.08  7.26        10        13     96.8806     13.5122     1.068     0.856 -68.48     1124.225
         8     667.8409  -7.0617  4.28  6.60        29        37    323.6441     16.5946     1.583     1.411  42.26     1122.882
         9      93.6145  -4.9284  5.43  7.26         6         7   1959.7288     11.8425     0.870     0.584 -58.10     1122.911
        10     106.9873  -5.0733  5.69  9.90         8         8   1269.7957     11.3847     0.932     0.645 -16.85     1122.741
        11     161.0734  -5.5176  6.30  6.60         9        12   1023.0481      9.5235     1.041     0.776  87.64     1122.792
        12     160.2006  -5.5117  5.55  6.60        10        12     69.1268      9.8808     1.155     0.722  -7.21     1124.605
        13     350.4731  -6.3616  5.07  5.94        19        21   1730.6909      8.0936     1.351     1.008 -17.89     1122.964
        14     7918.156  -9.7466  3.50  3.96        64        72   1856.0588      4.6852     1.564     1.400 -44.18      1122.94
        15      284.989  -6.1371  4.51  4.62        13        17    369.7873      6.0525     1.140     0.940 -26.11     1122.828
        16     1775.828  -8.1235  3.50  5.94        56        63    137.3429      3.1982     2.190     1.541  10.50     1123.676
        17     217.7075  -5.8447  4.03  5.28        11        12   1058.6550      2.0139     0.926     0.886   7.20     1123.176
        18     108.3927  -5.0875  5.77  7.92         8         8    432.1722      3.1372     0.827     0.678 -47.14     1122.711
        19     81.19324  -4.7738  7.37  8.58         6         7    911.4095     15.7258     1.016     0.475  81.85     1122.563
        20     1614.256  -8.0199  3.50  5.28        33        41   1458.2324     27.1273     1.472     1.256 -50.04     1122.823
        21     301.0295  -6.1965  7.91 10.56        18        24    673.5704     26.5924     1.520     1.142 -67.87      1122.84
        22     445.2394  -6.6215  5.52  4.62        20        26    691.5129     28.5218     1.412     1.140 -43.19     1122.843
        23     71.75098  -4.6396  5.62  6.60         5         6   1489.8459     21.1552     0.739     0.567 -45.09     1122.819
        24     74.53796  -4.6809  7.96  5.28         5         6    905.3213     24.2017     0.735     0.651 -15.31     1122.595
        25     689.7407  -7.0967  4.23  5.28        23        27    259.7176     29.9928     1.349     1.112  -0.74     1123.003
        26     1156.181  -7.6576  5.30  5.94        52        63   1287.9758     51.7792     2.094     1.683  -3.79     1122.745
        27     147.9182  -5.4251  5.68  7.92        10        13   1154.5814     29.6159     1.042     0.904  36.45     1122.942
        28     186.0581  -5.6741  5.44  9.90        13        17   1014.7578     29.8020     2.078     0.698  19.42     1122.689
        29     263.7162  -6.0528  3.50  7.92        18        20    457.4936     35.0243     1.641     0.833 -38.42     1122.773
        30     62.64734  -4.4923  4.83  7.92         4         5    307.4127     30.2216     0.750     0.449  70.43     1122.885
        31     319.0315  -6.2596  4.87  6.60        16        19    161.1277     41.4450     1.241     0.974 -33.51     1123.113
        32     156.4139  -5.4857  5.58  5.94         9        14   1303.0320     47.0010     1.516     0.733 -66.12     1122.768
        33     104.5974  -5.0488  6.18  6.60         5         9   1592.6589     40.9460     0.947     0.686 -22.40     1122.857
        34     57053.88 -11.8907  3.50  3.50       188       198   1135.9323     79.1597     1.856     1.680 -48.75     1122.938
        35     424.8439  -6.5706  6.15  5.94        24        26    689.6588     58.5139     1.790     1.002  85.18     1122.871
        36     108.3342  -5.0869  6.12  7.26         8         8   1418.9020     48.8508     0.834     0.658 -44.07     1122.868
        37     127.6707  -5.2652  5.38  6.60         8         9   1909.9305     50.0001     0.783     0.775 -70.40     1122.846
        38     97.38733  -4.9713  5.52  4.62         6         8   1940.8627     50.1088     0.854     0.680  44.13     1122.846
        39     145.4304  -5.4066  3.54  7.26        10        11    109.0725     58.5362     1.087     0.716 -49.70     1123.413
        40     326.3978  -6.2844  3.50  5.94        15        18   1076.8468     61.8693     1.118     0.963 -66.12     1123.024
        41     2764.066  -8.6039  5.52  9.24       140       164   1473.0338     91.9690     3.678     2.803 -64.60     1122.955
        42     581.9146  -6.9121  5.45  5.28        29        32   1615.2644     68.1292     1.561     1.290 -36.30     1122.861
        43     88.80774  -4.8711  7.76  7.26         6         7   1037.2928     60.9539     0.732     0.672 -69.82     1122.853
        44     187.2041  -5.6808  6.54  8.58        14        14   1146.4971     66.5127     1.116     0.852 -44.47     1122.928
        45     1511.608  -7.9486  4.64  6.60        56        69   1145.2793     82.1470     1.944     1.780  -2.70     1122.907
        46     1135.352  -7.6378  3.87  4.62        32        36   1659.2843     77.2701     1.455     1.201 -71.13     1122.899
        47     331.1887  -6.3002  3.50  5.28        16        18   1296.9796     69.5885     1.221     0.889 -27.23     1122.738
        48     70.56433  -4.6215  3.50  4.62         5         5    834.7352     64.5907     0.734     0.459  17.92     1122.843
        49     2304.919  -8.4066  4.54  6.60       102       114   1100.6077     85.1996     3.423     1.929   1.93     1122.965
        50     368.3865  -6.4158  5.93  6.60        24        28    327.8874     77.6729     1.618     1.185 -82.46     1122.895
        51     1178.116  -7.6780  3.60  4.62        31        36   1876.9175     79.3055     1.388     1.231 -47.90     1122.827
        52     441.6864  -6.6128  5.10  7.26        26        29    697.2935     82.2086     1.837     1.102 -52.79     1122.888
        53     2471.432  -8.4824  3.74  5.28        54        66   1131.2000     89.9346     1.985     1.464 -20.40     1122.928
        54      126.198  -5.2526  6.01  5.94         7         9    796.8313     78.8671     1.006     0.839  39.35     1122.865
        55     131.2235  -5.2950  6.97 10.56         7        10   1843.9852     82.6225     0.972     0.743  39.74     1122.887
        56     291.3599  -6.1611  5.84  6.60        17        19    622.2964     88.5257     1.380     0.940 -83.54     1122.859
        57     164.5763  -5.5409  5.40  6.60        12        13    558.3549     91.1245     1.288     0.716 -51.73     1122.808
        58     4484.216  -9.1292  4.11  7.26       236       265   1458.4518    127.8424     4.766     3.717 -15.96     1123.549
        59     165.8889  -5.5495  4.07  7.26         9        10   1078.9058     89.0001     0.894     0.747 -11.12     1122.955
        60     1303.408  -7.7877  4.54  5.94        49        53    487.2903    107.3344     1.837     1.608  76.18     1122.792
        61     91.48682  -4.9034  4.49  5.28         6         6    981.5081     92.9945     0.762     0.500 -88.59     1122.472
        62     88.52136  -4.8676  6.79  5.28         5         7     55.0432     94.0313     0.885     0.526 -44.84     1122.957
        63     2459.624  -8.4772  5.32  5.94        96       106    927.0390    129.5272     3.333     1.768 -58.40     1122.514
        64     142.5261  -5.3847  6.70  5.28        10        10   1858.0768    102.4233     0.998     0.749  39.82     1122.853
        65     93.32043  -4.9249  6.62  3.96         5         6    174.1613    100.1614     0.718     0.566  50.11     1122.942
        66     277.3604  -6.1076  3.88  6.60        14        16    299.8935    109.1128     1.139     0.893 -87.94     1122.912
        67       138.08  -5.3503  7.08  5.28         8         9    938.5160    105.3431     0.994     0.621  -6.03     1122.483
        68      2650.42  -8.5583  3.50  3.96        40        46     91.9128    118.0617     1.415     1.272 -46.48     1122.874
        69     47758.84 -11.6976  3.50  3.96       165       192   1519.3315    145.0623     1.790     1.633 -47.33     1123.832
        70     258.7145  -6.0321  6.22  8.58        15        22     53.0920    113.0903     1.972     0.703 -34.01      1122.85
        71     204.0439  -5.7743  5.16  5.94        16        17   1848.8522    110.5333     1.256     0.986 -15.02     1122.882
        72     112.6874  -5.1297  8.05 10.56         7        10    108.9663    112.5268     1.038     0.661 -63.10     1122.888
        73      54.7749  -4.3465  6.98  7.92         4         5    970.3906    111.1892     0.773     0.446  71.79     1122.509
        74     63.61511  -4.5089  7.85 10.56         5         5     27.7540    118.0491     1.051     0.398 -85.40     1122.812
        75     211.1864  -5.8117  4.79  7.26        11        13    111.6488    118.4108     0.976     0.867 -39.34      1122.89
        76     58.24524  -4.4132  7.54  5.94         5         5   1336.2076    116.7893     0.984     0.349  44.86     1122.784
        77     6703.351  -9.5657  3.50  3.96        67        81    144.0866    136.4418     1.640     1.434 -49.74     1122.912
        78     108.7474  -5.0910  6.07  8.58         6        10     59.8133    121.4840     0.952     0.740  88.33     1122.836
        79     1050.166  -7.5531  4.74  7.26        42        52    912.1380    139.1649     1.755     1.602 -61.21     1122.595
        80     989.6543  -7.4887  5.11  5.28        39        44    945.1092    135.6542     1.601     1.515 -39.28     1122.536
        81     697.1091  -7.1083  4.88  6.60        30        37   1142.6595    134.6345     1.711     1.372 -41.74     1122.863
        82     626.5016  -6.9923  3.50  5.94        20        26    243.3036    132.6146     1.277     1.109 -26.08     1122.951
        83     298.5789  -6.1876  5.77  5.94        17        22   1479.7731    131.9459     1.355     1.069  40.38     1123.603
        84     58.25537  -4.4133  7.93  7.92         4         5      5.2020    129.9779     0.796     0.500  32.43     1122.722
        85     120.6626  -5.2039  8.12  6.60         8        11   1004.6376    135.5447     1.541     0.614 -25.41     1122.656
        86     254.4424  -6.0140  5.60  4.62        12        15   1148.4313    141.6760     1.073     0.904 -35.97     1122.843
        87     1485.941  -7.9300  4.93  7.26        49        56    915.4819    155.7990     1.766     1.568  -2.40     1122.591
        88     8961.088  -9.8809  5.01  9.24       295       356   1337.1886    209.3209     4.607     3.944  78.72     1122.656
        89     106.4558  -5.0679  6.28  6.60         5         7   1407.9786    146.2874     0.735     0.656 -10.60     1123.362
        90     73.22778  -4.6617  8.15  7.26         4         5    648.5930    145.7998     0.975     0.390  -5.89     1122.765
        91     350.6509  -6.3622  6.81 10.56        19        23   1513.0725    156.4141     1.313     1.229  88.05     1124.045
        92     1599.377  -8.0099  4.02  4.62        34        39   1317.8380    159.8999     1.421     1.243 -45.67     1122.814
        93     2096.814  -8.3039  4.51  6.60        72        80   1135.2493    168.5043     2.041     1.960 -29.72     1122.868
        94     119.1548  -5.1903  6.85  4.62         8         8   1175.1969    152.9684     0.825     0.649  52.20     1122.746
        95     99.52612  -4.9948  7.15  7.26         5         8     15.1418    155.0427     0.869     0.649 -45.65     1122.613
        96      210.189  -5.8065  6.85  5.94        12        15    160.0305    159.1057     1.505     0.773  22.78     1122.921
        97     320.4431  -6.2644  3.50  5.94        16        19    198.1255    165.8465     1.097     1.075 -19.43     1122.928
        98     6196.561  -9.4804  3.50  4.62        60        70   1246.9916    179.5919     1.555     1.442 -40.72      1122.77
        99     2637.026  -8.5528  4.18  6.60        91        98    491.9584    182.8567     2.279     2.123  59.09      1122.72
       100     882.6935  -7.3645  4.29  5.28        27        31    995.9047    174.6363     1.370     1.150 -35.14     1122.707
       101     5452.151  -9.3414  4.42  7.26       161       189   1381.2678    215.0727     3.355     2.536 -57.29      1122.67
       102     8388.886  -9.8093  4.34  5.94       255       282   1398.4677    211.3078     3.964     3.190 -21.70     1122.833
       103     85.18335  -4.8259  6.40  7.26         6         7   1188.9551    174.5132     0.979     0.605 -57.49     1122.704
       104     179.9735  -5.6380  6.02  9.90        11        14    204.7189    177.4568     1.097     0.896  59.84     1122.938
       105     4174.266  -9.0514  4.41  7.26       130       153   1521.8486    217.8230     3.473     2.164 -71.14     1123.051
       106     2286.957  -8.3981  3.99  6.60        64        74    289.6830    195.8036     2.008     1.712  56.64     1122.966
       107     124.4191  -5.2372  4.88  5.94         9         9    958.3419    179.4519     0.973     0.677 -32.55     1122.634
       108      224.385  -5.8775  4.30  5.94        11        14    102.3033    179.4771     0.962     0.937 -54.88     1122.883
       109     102.0763  -5.0223  5.65  9.90         7         8   1297.7351    178.2363     0.919     0.639   3.44     1122.758
       110     2405.006  -8.4528  4.35  5.94        87        98   1391.3490    201.1464     2.669     1.983 -38.63     1122.852
       111     10887.58 -10.0923  3.50  3.96        88        95   1545.6796    209.1689     1.670     1.491 -42.85      1123.22
       112     287.7822  -6.1477  4.57  7.26        19        24    797.8768    193.9522     1.744     0.997  49.57     1122.835
       113     21067.63 -10.8090  3.50  3.96       120       130   1155.8099    215.8756     1.742     1.566 -49.77     1122.773
       114     759.9099  -7.2019  5.06  5.28        31        34   1531.8551    201.0715     1.440     1.328  75.91     1123.375
       115     1793.008  -8.1340  5.42  6.60        58        77    500.2267    211.3275     2.177     1.641 -49.82     1122.647
       116      1257840 -15.2491  3.50  5.28     15052     16424   1067.2290   1099.9381    27.426    15.059 -80.52     1132.135
       117     1289.049  -7.7757  5.84  6.60        52        61   1302.6321    208.5879     1.890     1.764  34.51     1122.659
       118     853.0754  -7.3275  4.67  6.60        42        47    961.9024    207.4162     1.929     1.473 -86.91     1122.675
       119     219.8966  -5.8555  4.70  5.28        10        12   1290.6693    195.2129     0.969     0.831 -20.05     1122.712
       120     115.9441  -5.1606  4.01  6.60         7         9    595.1311    196.3429     0.906     0.677 -68.41     1122.688
       121     3025.639  -8.7020  3.91  5.28        96       107   1254.6444    220.5101     2.660     2.154  39.62     1122.686
       122     602.9504  -6.9507  3.97  6.60        38        43   1606.7408    203.9248     2.649     1.203  12.24     1123.077
       123     67.68384  -4.5762  7.06  8.58         5         7    708.9929    196.0000     0.893     0.531  43.04     1122.767
       124     110.5038  -5.1084  5.75  7.26         7         9    811.8742    199.4321     1.132     0.569 -62.14     1122.822
       125     766.2363  -7.2109  6.52 10.56        32        50   2016.8724    214.6389     1.909     1.318 -63.94     1122.751
       126     82.98364  -4.7975  6.22  7.26         6         7   1070.3038    199.1914     0.841     0.607 -60.82     1122.843
       127     397.8987  -6.4994  4.66  7.26        22        28   1456.8372    214.7296     1.581     1.150  73.30     1123.111
       128     531.9744  -6.8147  5.43  7.26        31        39   1096.8601    218.8203     1.936     1.365 -59.28     1122.865
       129     514.9794  -6.7795  5.30  7.26        33        37   1111.5226    213.5019     1.860     1.379 -19.50     1122.871
       130     160.0491  -5.5106  6.92 10.56        11        12    451.3359    209.3178     1.029     0.913 -41.50     1122.658
       131     483.0289  -6.7099  4.53  5.94        19        24   1552.7856    212.0753     1.330     1.068 -20.16     1123.162
       132     257.6366  -6.0275  7.72 10.56        18        19    450.4773    212.5180     1.209     1.118  -6.66     1122.647
       133     1715.603  -8.0860  5.23  8.58        58        67    444.4082    224.6545     2.238     1.538 -15.54     1122.614
       134     100.9838  -5.0106  6.61  6.60         8         9    234.4551    212.3444     1.020     0.640   5.33      1122.99
       135     748.1804  -7.1850  5.51  5.28        25        31   2013.4860    228.6472     1.341     1.253  17.89     1122.733
       136     69.38208  -4.6031  6.76  7.26         4         7   1935.8528    223.1139     1.022     0.593  75.87     1122.929
       137     698.5702  -7.1105  5.55  8.58        31        35   1591.6033    236.4263     1.641     1.305  64.78     1122.913
       138     383.3079  -6.4589  4.09  5.28        16        21   1177.8530    229.2200     1.207     1.029 -35.85     1122.708
       139     162.0277  -5.5240  4.89  5.94         8        11   1496.4669    226.6063     0.943     0.779   9.34     1122.921
       140     74.91992  -4.6865  5.94  7.92         4         6    937.8776    223.8489     0.765     0.567  44.38     1122.689
       141     111.0641  -5.1139  5.21  7.26         7        10     65.4646    230.6880     1.149     0.658  38.18     1122.898
       142     309.7124  -6.2274  4.60  5.94        19        20    596.8904    235.4517     1.267     1.074 -41.08     1122.668
       143     3093.914  -8.7263  3.50  4.62        42        49    928.8839    244.7875     1.471     1.301 -34.87      1122.69
       144     384.3734  -6.4619  4.39  5.94        19        22   1479.3219    239.8598     1.295     1.179  63.59     1122.921
       145     73.54944  -4.6664  7.68  9.24         5         6     57.6706    237.2140     1.123     0.403  76.67     1122.907
